 ROSSELAND MASS ABSORPTION COEFFICIENTS [-0.3]  version 11oct92
 logT logP  0km/s  1km/s  2km/s  4km/s  8km/s  log Ne   log Na  log rho IPloCM-1
 3.32-2.00 -5.379 -5.369 -5.353 -5.327 -5.294  5.03222 10.54020-13.12989   0.002
 3.32-1.50 -5.403 -5.393 -5.376 -5.348 -5.314  5.46434 11.04100-12.62893   0.003
 3.32-1.00 -5.438 -5.426 -5.408 -5.379 -5.344  5.87783 11.54394-12.12616   0.005
 3.32-0.50 -5.473 -5.461 -5.442 -5.413 -5.378  6.28375 12.05231-11.61780   0.007
 3.32 0.00 -5.496 -5.484 -5.465 -5.435 -5.400  6.70096 12.57357-11.09653   0.012
 3.32 0.50 -5.495 -5.482 -5.463 -5.433 -5.398  7.14270 13.11461-10.55549   0.019
 3.32 1.00 -5.476 -5.463 -5.443 -5.413 -5.378  7.58275 13.66820-10.00191   0.032
 3.32 1.25 -5.463 -5.450 -5.431 -5.401 -5.366  7.78644 13.94328 -9.72685   0.041
 3.32 1.50 -5.450 -5.437 -5.419 -5.389 -5.354  7.97900 14.21643 -9.45370   0.051
 3.32 1.75 -5.435 -5.423 -5.404 -5.376 -5.342  8.15844 14.48535 -9.18470   0.062
 3.32 2.00 -5.418 -5.406 -5.389 -5.361 -5.328  8.33001 14.75097 -8.91901   0.076
 3.32 2.25 -5.397 -5.386 -5.369 -5.343 -5.311  8.49423 15.01315 -8.65687   0.092
 3.32 2.50 -5.372 -5.362 -5.346 -5.321 -5.291  8.65686 15.27277 -8.39729   0.111
 3.32 2.75 -5.341 -5.331 -5.316 -5.293 -5.265  8.81846 15.53026 -8.13983   0.134
 3.32 3.00 -5.304 -5.294 -5.281 -5.259 -5.232  8.98005 15.78604 -7.88406   0.161
 3.32 3.20 -5.268 -5.259 -5.246 -5.226 -5.200  9.11163 15.98954 -7.68053   0.187
 3.32 3.40 -5.226 -5.218 -5.206 -5.187 -5.163  9.24355 16.19240 -7.47764   0.218
 3.32 3.60 -5.178 -5.171 -5.160 -5.143 -5.120  9.37580 16.39467 -7.27533   0.254
 3.32 3.80 -5.123 -5.117 -5.107 -5.091 -5.070  9.50814 16.59655 -7.07343   0.295
 3.32 4.00 -5.062 -5.057 -5.049 -5.035 -5.015  9.64048 16.79803 -6.87192   0.344
 3.32 4.20 -5.004 -4.998 -4.990 -4.976 -4.956  9.76927 16.99911 -6.67084   0.399
 3.32 4.40 -4.939 -4.934 -4.926 -4.912 -4.892  9.89540 17.20001 -6.46995   0.462
 3.32 4.60 -4.871 -4.866 -4.858 -4.844 -4.825 10.01821 17.40074 -6.26920   0.532
 3.32 4.80 -4.799 -4.794 -4.786 -4.773 -4.753 10.13741 17.60137 -6.06856   0.610
 3.32 5.00 -4.720 -4.715 -4.707 -4.694 -4.674 10.25358 17.80188 -5.86806   0.697
 3.32 5.20 -4.634 -4.629 -4.622 -4.608 -4.589 10.36674 18.00230 -5.66781   0.794
 3.32 5.40 -4.538 -4.533 -4.525 -4.512 -4.493 10.47764 18.20263 -5.46757   0.902
 3.32 5.60 -4.428 -4.424 -4.417 -4.404 -4.386 10.58634 18.40284 -5.26731   1.023
 3.32 5.80 -4.303 -4.299 -4.292 -4.281 -4.263 10.69344 18.60299 -5.06705   1.157
 3.32 6.00 -4.158 -4.155 -4.149 -4.138 -4.122 10.79906 18.80312 -4.86678   1.306
 3.32 6.25 -3.944 -3.942 -3.937 -3.927 -3.913 10.92939 19.05327 -4.61676   1.518
 3.32 6.50 -3.685 -3.682 -3.678 -3.671 -3.659 11.05843 19.30341 -4.36673   1.761
 3.32 6.75 -3.369 -3.368 -3.364 -3.359 -3.350 11.18657 19.55347 -4.11660   2.040
 3.32 7.00 -3.165 -3.164 -3.161 -3.156 -3.149 11.31387 19.80353 -3.86646   2.362
 3.32 7.25 -3.051 -3.050 -3.048 -3.043 -3.037 11.44043 20.05358 -3.61650   2.733
 3.32 7.50 -2.943 -2.941 -2.939 -2.935 -2.929 11.56632 20.30363 -3.36653   3.159
 3.32 7.75 -2.838 -2.837 -2.835 -2.831 -2.826 11.69162 20.55365 -3.11651   3.649
 3.32 8.00 -2.737 -2.736 -2.734 -2.731 -2.726 11.81631 20.80366 -2.86646   4.213
 3.34-2.00 -5.307 -5.298 -5.283 -5.257 -5.224  5.09760 10.51983-13.15034   0.002
 3.34-1.50 -5.325 -5.315 -5.299 -5.271 -5.237  5.54045 11.01995-12.65014   0.003
 3.34-1.00 -5.340 -5.329 -5.312 -5.282 -5.246  5.97791 11.52101-12.14911   0.005
 3.34-0.50 -5.358 -5.346 -5.326 -5.295 -5.258  6.39759 12.02366-11.64647   0.008
 3.34 0.00 -5.369 -5.356 -5.335 -5.302 -5.264  6.80645 12.53173-11.13829   0.013
 3.34 0.50 -5.358 -5.344 -5.322 -5.289 -5.250  7.21985 13.05269-10.61762   0.021
 3.34 1.00 -5.313 -5.298 -5.277 -5.243 -5.204  7.65389 13.59317-10.07691   0.034
 3.34 1.25 -5.279 -5.265 -5.244 -5.211 -5.172  7.87348 13.86981 -9.80026   0.044
 3.34 1.50 -5.244 -5.230 -5.209 -5.176 -5.138  8.09307 14.14644 -9.52360   0.057
 3.34 1.75 -5.208 -5.194 -5.174 -5.142 -5.105  8.29951 14.42161 -9.24847   0.072
 3.34 2.00 -5.175 -5.161 -5.142 -5.111 -5.075  8.49568 14.69504 -8.97510   0.090
 3.34 2.25 -5.142 -5.129 -5.110 -5.081 -5.046  8.67790 14.96413 -8.70595   0.111
 3.34 2.50 -5.111 -5.098 -5.080 -5.052 -5.019  8.85138 15.22994 -8.44009   0.136
 3.34 2.75 -5.077 -5.065 -5.048 -5.022 -4.991  9.01690 15.49243 -8.17771   0.164
 3.34 3.00 -5.042 -5.030 -5.015 -4.990 -4.960  9.17926 15.75228 -7.91793   0.198
 3.34 3.20 -5.009 -4.998 -4.984 -4.961 -4.932  9.30716 15.95839 -7.71172   0.229
 3.34 3.40 -4.973 -4.963 -4.949 -4.928 -4.901  9.43505 16.16342 -7.50663   0.266
 3.34 3.60 -4.932 -4.923 -4.910 -4.890 -4.865  9.56359 16.36742 -7.30266   0.308
 3.34 3.80 -4.884 -4.877 -4.865 -4.847 -4.823  9.69296 16.57071 -7.09945   0.358
 3.34 4.00 -4.831 -4.825 -4.816 -4.799 -4.777  9.82256 16.77335 -6.89688   0.415
 3.34 4.20 -4.781 -4.775 -4.766 -4.750 -4.728  9.95236 16.97544 -6.69477   0.482
 3.34 4.40 -4.726 -4.720 -4.711 -4.696 -4.674 10.08216 17.17714 -6.49305   0.559
 3.34 4.60 -4.669 -4.664 -4.655 -4.640 -4.618 10.21074 17.37845 -6.29169   0.648
 3.34 4.80 -4.612 -4.606 -4.598 -4.583 -4.562 10.33637 17.57949 -6.09060   0.749
 3.34 5.00 -4.552 -4.546 -4.538 -4.523 -4.502 10.45969 17.78032 -5.88975   0.863
 3.34 5.20 -4.491 -4.485 -4.477 -4.463 -4.442 10.57944 17.98097 -5.68913   0.991
 3.34 5.40 -4.428 -4.422 -4.414 -4.400 -4.379 10.69639 18.18150 -5.48861   1.133
 3.34 5.60 -4.362 -4.357 -4.350 -4.336 -4.316 10.81040 18.38191 -5.28815   1.293
 3.34 5.80 -4.296 -4.291 -4.284 -4.270 -4.250 10.92198 18.58226 -5.08773   1.470
 3.34 6.00 -4.228 -4.223 -4.216 -4.203 -4.184 11.03141 18.78255 -4.88739   1.668
 3.34 6.25 -4.141 -4.137 -4.130 -4.118 -4.099 11.16568 19.03285 -4.63725   1.947
 3.34 6.50 -4.054 -4.050 -4.043 -4.031 -4.014 11.29776 19.28308 -4.38711   2.266
 3.34 6.75 -3.965 -3.961 -3.955 -3.944 -3.927 11.42800 19.53319 -4.13692   2.633
 3.34 7.00 -3.876 -3.872 -3.866 -3.856 -3.840 11.55691 19.78326 -3.88673   3.054
 3.34 7.25 -3.787 -3.783 -3.778 -3.768 -3.753 11.68481 20.03328 -3.63669   3.538
 3.34 7.50 -3.697 -3.694 -3.689 -3.680 -3.666 11.81178 20.28330 -3.38669   4.095
 3.34 7.75 -3.608 -3.605 -3.600 -3.591 -3.579 11.93797 20.53337 -3.13670   4.735
 3.34 8.00 -3.519 -3.516 -3.511 -3.503 -3.492 12.06333 20.78347 -2.88673   5.471
 3.36-2.00 -5.192 -5.183 -5.168 -5.143 -5.110  5.23629 10.49969-13.17037   0.002
 3.36-1.50 -5.243 -5.234 -5.218 -5.190 -5.156  5.62644 10.99978-12.67040   0.003
 3.36-1.00 -5.266 -5.256 -5.238 -5.209 -5.173  6.05154 11.50010-12.16999   0.005
 3.36-0.50 -5.271 -5.259 -5.241 -5.209 -5.171  6.48671 12.00087-11.66918   0.009
 3.36 0.00 -5.264 -5.251 -5.230 -5.196 -5.156  6.91046 12.50379-11.16628   0.014
 3.36 0.50 -5.234 -5.219 -5.197 -5.162 -5.120  7.32263 13.01199-10.65797   0.023
 3.36 1.00 -5.168 -5.153 -5.130 -5.093 -5.051  7.73584 13.53326-10.13686   0.037
 3.36 1.25 -5.122 -5.106 -5.083 -5.047 -5.005  7.94903 13.80174 -9.86827   0.047
 3.36 1.50 -5.068 -5.053 -5.030 -4.994 -4.953  8.16465 14.07408 -9.59585   0.060
 3.36 1.75 -5.010 -4.995 -4.973 -4.938 -4.898  8.38259 14.35088 -9.31912   0.077
 3.36 2.00 -4.951 -4.936 -4.915 -4.882 -4.843  8.60054 14.62767 -9.04239   0.099
 3.36 2.25 -4.894 -4.879 -4.859 -4.827 -4.790  8.80753 14.90282 -8.76729   0.126
 3.36 2.50 -4.841 -4.827 -4.808 -4.778 -4.742  9.00518 15.17609 -8.49404   0.158
 3.36 2.75 -4.792 -4.778 -4.760 -4.731 -4.697  9.18886 15.44505 -8.22507   0.195
 3.36 3.00 -4.746 -4.733 -4.716 -4.689 -4.656  9.36342 15.71071 -7.95940   0.239
 3.36 3.20 -4.708 -4.696 -4.680 -4.655 -4.624  9.49660 15.92078 -7.74940   0.279
 3.36 3.40 -4.670 -4.660 -4.644 -4.621 -4.591  9.62724 16.12917 -7.54104   0.324
 3.36 3.60 -4.630 -4.620 -4.607 -4.585 -4.556  9.75509 16.33590 -7.33424   0.375
 3.36 3.80 -4.586 -4.577 -4.565 -4.545 -4.519  9.88206 16.54142 -7.12861   0.434
 3.36 4.00 -4.537 -4.531 -4.521 -4.503 -4.478 10.00903 16.74586 -6.92409   0.502
 3.36 4.20 -4.492 -4.486 -4.476 -4.459 -4.435 10.13644 16.94944 -6.72059   0.582
 3.36 4.40 -4.443 -4.437 -4.427 -4.411 -4.388 10.26386 17.15237 -6.51775   0.674
 3.36 4.60 -4.391 -4.386 -4.377 -4.361 -4.339 10.39126 17.35465 -6.31552   0.780
 3.36 4.80 -4.338 -4.333 -4.324 -4.309 -4.287 10.51858 17.55649 -6.11368   0.903
 3.36 5.00 -4.281 -4.276 -4.268 -4.253 -4.231 10.64581 17.75793 -5.91222   1.045
 3.36 5.20 -4.222 -4.217 -4.209 -4.195 -4.173 10.77047 17.95903 -5.71105   1.206
 3.36 5.40 -4.160 -4.155 -4.148 -4.134 -4.113 10.89305 18.15993 -5.51011   1.389
 3.36 5.60 -4.095 -4.090 -4.083 -4.070 -4.050 11.01303 18.36067 -5.30938   1.596
 3.36 5.80 -4.028 -4.023 -4.017 -4.004 -3.984 11.13005 18.56129 -5.10880   1.826
 3.36 6.00 -3.959 -3.955 -3.948 -3.936 -3.918 11.24452 18.76178 -4.90833   2.083
 3.36 6.25 -3.871 -3.868 -3.862 -3.850 -3.833 11.38399 19.01213 -4.65787   2.446
 3.36 6.50 -3.782 -3.779 -3.773 -3.763 -3.746 11.52035 19.26245 -4.40749   2.862
 3.36 6.75 -3.693 -3.690 -3.684 -3.674 -3.659 11.65401 19.51277 -4.15717   3.338
 3.36 7.00 -3.603 -3.600 -3.595 -3.586 -3.572 11.78561 19.76305 -3.90693   3.883
 3.36 7.25 -3.513 -3.511 -3.506 -3.497 -3.484 11.91561 20.01311 -3.65688   4.510
 3.36 7.50 -3.424 -3.421 -3.417 -3.409 -3.397 12.04415 20.26316 -3.40683   5.229
 3.36 7.75 -3.335 -3.333 -3.329 -3.321 -3.311 12.17149 20.51328 -3.15672   6.055
 3.36 8.00 -3.247 -3.245 -3.241 -3.234 -3.224 12.29754 20.76343 -2.90658   7.002
 3.38-2.00 -5.018 -5.010 -4.996 -4.971 -4.941  5.46849 10.47972-13.19044   0.003
 3.38-1.50 -5.105 -5.096 -5.081 -5.054 -5.021  5.80489 10.97968-12.69037   0.004
 3.38-1.00 -5.166 -5.157 -5.140 -5.112 -5.076  6.16879 11.47986-12.19031   0.006
 3.38-0.50 -5.193 -5.182 -5.164 -5.134 -5.095  6.57008 11.98009-11.68994   0.009
 3.38 0.00 -5.182 -5.171 -5.151 -5.118 -5.077  6.99520 12.48116-11.18896   0.015
 3.38 0.50 -5.137 -5.124 -5.102 -5.066 -5.022  7.41913 12.98408-10.68592   0.025
 3.38 1.00 -5.048 -5.033 -5.010 -4.972 -4.927  7.83398 13.49290-10.17718   0.040
 3.38 1.25 -4.987 -4.971 -4.948 -4.910 -4.865  8.04122 13.75212 -9.91811   0.051
 3.38 1.50 -4.916 -4.900 -4.876 -4.838 -4.794  8.24846 14.01536 -9.65502   0.065
 3.38 1.75 -4.839 -4.823 -4.800 -4.763 -4.720  8.46044 14.28456 -9.38564   0.083
 3.38 2.00 -4.758 -4.742 -4.719 -4.684 -4.642  8.67431 14.55739 -9.11266   0.106
 3.38 2.25 -4.675 -4.660 -4.638 -4.604 -4.564  8.89008 14.83416 -8.83588   0.135
 3.38 2.50 -4.594 -4.580 -4.559 -4.527 -4.489  9.10585 15.11093 -8.55909   0.173
 3.38 2.75 -4.518 -4.504 -4.485 -4.455 -4.419  9.31189 15.38579 -8.28425   0.219
 3.38 3.00 -4.448 -4.436 -4.418 -4.390 -4.356  9.50934 15.65858 -8.01149   0.276
 3.38 3.20 -4.397 -4.385 -4.369 -4.343 -4.310  9.65734 15.87363 -7.79640   0.327
 3.38 3.40 -4.349 -4.339 -4.323 -4.299 -4.268  9.79948 16.08659 -7.58340   0.385
 3.38 3.60 -4.303 -4.293 -4.280 -4.257 -4.228  9.93534 16.29740 -7.37257   0.451
 3.38 3.80 -4.256 -4.248 -4.236 -4.216 -4.189 10.06719 16.50640 -7.16358   0.525
 3.38 4.00 -4.210 -4.203 -4.193 -4.175 -4.150 10.19618 16.71374 -6.95625   0.609
 3.38 4.20 -4.167 -4.162 -4.152 -4.135 -4.111 10.32258 16.91956 -6.75045   0.704
 3.38 4.40 -4.123 -4.118 -4.109 -4.093 -4.070 10.44861 17.12434 -6.54569   0.814
 3.38 4.60 -4.078 -4.073 -4.065 -4.050 -4.027 10.57440 17.32816 -6.34190   0.941
 3.38 4.80 -4.033 -4.028 -4.020 -4.005 -3.983 10.70006 17.53132 -6.13879   1.087
 3.38 5.00 -3.983 -3.978 -3.971 -3.956 -3.935 10.82549 17.73384 -5.93629   1.256
 3.38 5.20 -3.931 -3.926 -3.919 -3.905 -3.885 10.95080 17.93579 -5.73431   1.451
 3.38 5.40 -3.874 -3.870 -3.863 -3.850 -3.830 11.07570 18.13739 -5.53270   1.675
 3.38 5.60 -3.813 -3.810 -3.803 -3.791 -3.772 11.19944 18.33866 -5.33143   1.932
 3.38 5.80 -3.750 -3.746 -3.740 -3.728 -3.710 11.32091 18.53970 -5.13040   2.223
 3.38 6.00 -3.683 -3.680 -3.674 -3.663 -3.645 11.44044 18.74052 -4.92959   2.551
 3.38 6.25 -3.597 -3.594 -3.589 -3.578 -3.562 11.58587 18.99124 -4.67887   3.016
 3.38 6.50 -3.509 -3.506 -3.501 -3.491 -3.476 11.72770 19.24179 -4.42829   3.550
 3.38 6.75 -3.420 -3.417 -3.413 -3.404 -3.390 11.86597 19.49228 -4.17778   4.162
 3.38 7.00 -3.330 -3.327 -3.323 -3.315 -3.303 12.00130 19.74265 -3.92738   4.864
 3.38 7.25 -3.240 -3.238 -3.234 -3.227 -3.215 12.13393 19.99287 -3.67720   5.667
 3.38 7.50 -3.151 -3.149 -3.146 -3.139 -3.129 12.26458 20.24304 -3.42701   6.587
 3.38 7.75 -3.063 -3.061 -3.058 -3.051 -3.042 12.39380 20.49318 -3.17683   7.644
 3.38 8.00 -2.976 -2.974 -2.971 -2.965 -2.957 12.52140 20.74327 -2.92665   8.853
 3.40-2.00 -4.828 -4.820 -4.808 -4.785 -4.757  5.71466 10.45969-13.21042   0.003
 3.40-1.50 -4.925 -4.917 -4.902 -4.878 -4.846  6.04532 10.95966-12.71041   0.005
 3.40-1.00 -5.013 -5.004 -4.988 -4.960 -4.925  6.37401 11.45969-12.21035   0.007
 3.40-0.50 -5.075 -5.065 -5.048 -5.018 -4.980  6.71917 11.95980-11.71019   0.011
 3.40 0.00 -5.095 -5.084 -5.064 -5.032 -4.991  7.09691 12.46015-11.20993   0.017
 3.40 0.50 -5.056 -5.044 -5.023 -4.988 -4.943  7.50596 12.96123-10.70885   0.027
 3.40 1.00 -4.956 -4.942 -4.920 -4.882 -4.836  7.92531 13.46464-10.20537   0.044
 3.40 1.25 -4.883 -4.869 -4.846 -4.808 -4.761  8.13308 13.71843 -9.95163   0.055
 3.40 1.50 -4.796 -4.781 -4.758 -4.720 -4.674  8.34084 13.97442 -9.69572   0.070
 3.40 1.75 -4.699 -4.684 -4.661 -4.624 -4.578  8.54882 14.23442 -9.43566   0.089
 3.40 2.00 -4.593 -4.578 -4.555 -4.519 -4.475  8.75717 14.49859 -9.17140   0.113
 3.40 2.25 -4.486 -4.472 -4.450 -4.415 -4.373  8.96908 14.76893 -8.90108   0.145
 3.40 2.50 -4.380 -4.366 -4.345 -4.312 -4.272  9.18184 15.04258 -8.62746   0.185
 3.40 2.75 -4.278 -4.265 -4.246 -4.215 -4.178  9.39524 15.31953 -8.35053   0.237
 3.40 3.00 -4.181 -4.170 -4.152 -4.125 -4.090  9.60863 15.59649 -8.07361   0.302
 3.40 3.20 -4.109 -4.099 -4.083 -4.058 -4.025  9.77256 15.81616 -7.85395   0.365
 3.40 3.40 -4.043 -4.034 -4.020 -3.996 -3.966  9.93123 16.03425 -7.63585   0.438
 3.40 3.60 -3.982 -3.974 -3.962 -3.941 -3.912 10.08299 16.25023 -7.41983   0.522
 3.40 3.80 -3.926 -3.919 -3.908 -3.889 -3.863 10.22748 16.46372 -7.20629   0.617
 3.40 4.00 -3.873 -3.868 -3.859 -3.842 -3.818 10.36624 16.67514 -6.99482   0.724
 3.40 4.20 -3.828 -3.823 -3.815 -3.799 -3.776 10.49918 16.88439 -6.78560   0.844
 3.40 4.40 -3.784 -3.779 -3.772 -3.757 -3.736 10.62906 17.09208 -6.57794   0.979
 3.40 4.60 -3.742 -3.738 -3.731 -3.717 -3.696 10.75575 17.29829 -6.37177   1.133
 3.40 4.80 -3.701 -3.697 -3.690 -3.677 -3.657 10.88103 17.50340 -6.16666   1.309
 3.40 5.00 -3.658 -3.654 -3.648 -3.635 -3.616 11.00561 17.70749 -5.96257   1.511
 3.40 5.20 -3.614 -3.610 -3.604 -3.592 -3.573 11.13002 17.91065 -5.75938   1.744
 3.40 5.40 -3.566 -3.562 -3.556 -3.545 -3.527 11.25396 18.11324 -5.55677   2.011
 3.40 5.60 -3.513 -3.510 -3.505 -3.493 -3.476 11.37753 18.31531 -5.35468   2.318
 3.40 5.80 -3.457 -3.454 -3.448 -3.438 -3.421 11.50047 18.51704 -5.15293   2.671
 3.40 6.00 -3.396 -3.393 -3.388 -3.378 -3.363 11.62263 18.71842 -4.95156   3.074
 3.40 6.25 -3.316 -3.313 -3.309 -3.299 -3.285 11.77254 18.96967 -4.70034   3.653
 3.40 6.50 -3.232 -3.229 -3.225 -3.217 -3.203 11.91955 19.22063 -4.44941   4.327
 3.40 6.75 -3.145 -3.143 -3.139 -3.131 -3.119 12.06267 19.47139 -4.19865   5.103
 3.40 7.00 -3.057 -3.055 -3.052 -3.045 -3.034 12.20249 19.72198 -3.94808   5.994
 3.40 7.25 -2.969 -2.967 -2.964 -2.957 -2.947 12.33904 19.97240 -3.69774   7.014
 3.40 7.50 -2.881 -2.879 -2.876 -2.870 -2.861 12.47290 20.22272 -3.44745   8.182
 3.40 7.75 -2.794 -2.792 -2.789 -2.784 -2.776 12.60459 20.47296 -3.19718   9.521
 3.40 8.00 -2.708 -2.706 -2.704 -2.699 -2.692 12.73392 20.72313 -2.94692  11.050
 3.42-2.00 -4.660 -4.654 -4.642 -4.622 -4.596  5.91360 10.43965-13.23040   0.004
 3.42-1.50 -4.744 -4.736 -4.723 -4.700 -4.671  6.27393 10.93967-12.73049   0.006
 3.42-1.00 -4.832 -4.824 -4.809 -4.784 -4.751  6.61077 11.43981-12.23033   0.009
 3.42-0.50 -4.911 -4.902 -4.885 -4.857 -4.820  6.93737 11.93977-11.73025   0.014
 3.42 0.00 -4.960 -4.950 -4.931 -4.899 -4.858  7.27091 12.43996-11.23018   0.020
 3.42 0.50 -4.953 -4.942 -4.921 -4.886 -4.841  7.62941 12.94032-10.72979   0.030
 3.42 1.00 -4.868 -4.855 -4.833 -4.796 -4.747  8.02036 13.44170-10.22841   0.047
 3.42 1.25 -4.793 -4.781 -4.759 -4.720 -4.671  8.22464 13.69316 -9.97691   0.060
 3.42 1.50 -4.701 -4.688 -4.666 -4.628 -4.579  8.43056 13.94557 -9.72446   0.076
 3.42 1.75 -4.590 -4.577 -4.555 -4.518 -4.470  8.63719 14.19994 -9.47006   0.097
 3.42 2.00 -4.467 -4.454 -4.432 -4.396 -4.350  8.84473 14.45682 -9.21318   0.123
 3.42 2.25 -4.336 -4.323 -4.302 -4.268 -4.224  9.05291 14.71815 -8.95194   0.156
 3.42 2.50 -4.202 -4.189 -4.170 -4.137 -4.096  9.26221 14.98385 -8.68634   0.198
 3.42 2.75 -4.073 -4.062 -4.044 -4.014 -3.976  9.47443 15.25589 -8.41427   0.253
 3.42 3.00 -3.951 -3.941 -3.924 -3.897 -3.862  9.68664 15.53046 -8.13966   0.323
 3.42 3.20 -3.860 -3.851 -3.836 -3.812 -3.780  9.85596 15.75182 -7.91828   0.393
 3.42 3.40 -3.775 -3.767 -3.754 -3.732 -3.702 10.02455 15.97318 -7.69689   0.477
 3.42 3.60 -3.696 -3.689 -3.677 -3.658 -3.631 10.19006 16.19364 -7.47642   0.578
 3.42 3.80 -3.623 -3.617 -3.607 -3.590 -3.566 10.34913 16.41189 -7.25817   0.694
 3.42 4.00 -3.556 -3.552 -3.544 -3.529 -3.507 10.50297 16.62839 -7.04168   0.828
 3.42 4.20 -3.500 -3.496 -3.489 -3.475 -3.455 10.64874 16.84201 -6.82799   0.979
 3.42 4.40 -3.448 -3.445 -3.438 -3.426 -3.407 10.78902 17.05362 -6.61636   1.150
 3.42 4.60 -3.403 -3.399 -3.393 -3.382 -3.364 10.92344 17.26320 -6.40686   1.343
 3.42 4.80 -3.361 -3.358 -3.352 -3.341 -3.323 11.05387 17.47115 -6.19905   1.561
 3.42 5.00 -3.320 -3.317 -3.311 -3.301 -3.284 11.18127 17.67761 -5.99268   1.808
 3.42 5.20 -3.280 -3.277 -3.272 -3.262 -3.246 11.30623 17.88271 -5.78747   2.088
 3.42 5.40 -3.239 -3.236 -3.231 -3.221 -3.205 11.43011 18.08690 -5.58316   2.407
 3.42 5.60 -3.194 -3.191 -3.187 -3.177 -3.162 11.55318 18.29024 -5.37972   2.774
 3.42 5.80 -3.146 -3.143 -3.139 -3.130 -3.115 11.67572 18.49301 -5.17690   3.194
 3.42 6.00 -3.094 -3.091 -3.087 -3.078 -3.065 11.79755 18.69522 -4.97469   3.675
 3.42 6.25 -3.023 -3.021 -3.017 -3.009 -2.996 11.94904 18.94734 -4.72273   4.375
 3.42 6.50 -2.947 -2.945 -2.941 -2.934 -2.922 12.09899 19.19893 -4.47121   5.199
 3.42 6.75 -2.867 -2.865 -2.861 -2.854 -2.844 12.24604 19.45008 -4.21996   6.158
 3.42 7.00 -2.783 -2.781 -2.778 -2.772 -2.762 12.39023 19.70096 -3.96900   7.270
 3.42 7.25 -2.698 -2.697 -2.694 -2.688 -2.679 12.53085 19.95167 -3.71834   8.547
 3.42 7.50 -2.613 -2.611 -2.609 -2.603 -2.595 12.66839 20.20222 -3.46788  10.014
 3.42 7.75 -2.528 -2.526 -2.524 -2.519 -2.512 12.80308 20.45261 -3.21756  11.694
 3.42 8.00 -2.444 -2.442 -2.440 -2.436 -2.429 12.93485 20.70286 -2.96738  13.611
 3.44-2.00 -4.535 -4.529 -4.518 -4.500 -4.476  6.04376 10.41963-13.25042   0.005
 3.44-1.50 -4.592 -4.585 -4.573 -4.552 -4.525  6.44747 10.91965-12.75031   0.008
 3.44-1.00 -4.661 -4.654 -4.640 -4.617 -4.586  6.82020 11.41979-12.25034   0.012
 3.44-0.50 -4.733 -4.725 -4.709 -4.682 -4.647  7.16495 11.91971-11.75031   0.017
 3.44 0.00 -4.788 -4.779 -4.761 -4.730 -4.690  7.49318 12.41979-11.25026   0.025
 3.44 0.50 -4.802 -4.791 -4.771 -4.736 -4.691  7.82046 12.91991-10.75007   0.037
 3.44 1.00 -4.745 -4.732 -4.711 -4.673 -4.623  8.16465 13.42045-10.24965   0.055
 3.44 1.25 -4.682 -4.670 -4.647 -4.609 -4.558  8.34790 13.67103 -9.99909   0.068
 3.44 1.50 -4.597 -4.584 -4.562 -4.523 -4.472  8.53794 13.92200 -9.74812   0.084
 3.44 1.75 -4.487 -4.475 -4.453 -4.415 -4.365  8.73535 14.17382 -9.49627   0.105
 3.44 2.00 -4.359 -4.347 -4.327 -4.290 -4.241  8.93672 14.42684 -9.24321   0.133
 3.44 2.25 -4.216 -4.204 -4.185 -4.150 -4.104  9.14066 14.68210 -8.98792   0.169
 3.44 2.50 -4.064 -4.053 -4.035 -4.003 -3.961  9.34694 14.94022 -8.72979   0.214
 3.44 2.75 -3.911 -3.901 -3.885 -3.856 -3.817  9.55515 15.20331 -8.46673   0.272
 3.44 3.00 -3.762 -3.753 -3.738 -3.712 -3.677  9.76500 15.47085 -8.19921   0.346
 3.44 3.20 -3.650 -3.642 -3.629 -3.605 -3.574  9.93446 15.68973 -7.98035   0.420
 3.44 3.40 -3.545 -3.538 -3.526 -3.505 -3.477 10.10392 15.90962 -7.76046   0.511
